2theta,Experimental
30.0009,341.25
30.0208,263.33
30.0408,325.6
30.0607,417.02
30.0807,450.67
30.1006,387.85
30.1205,275.93
30.1405,311.55
30.1604,346.85
30.1804,393.16
30.2003,399.72
30.2202,324.17
30.2402,399.7
30.2601,375.48
30.2801,296.78
30.3,353.35
30.32,372.9
30.3399,317.99
30.3598,327.57
30.3798,325.05
30.3997,322.65
30.4197,366.77
30.4396,364.51
30.4596,243.73
30.4795,250.49
30.4994,473.78
30.5194,366.61
30.5393,333.7
30.5593,304.79
30.5792,373.47
30.5991,323.6
30.6191,248.78
30.639,203.98
30.659,237.13
30.6789,272.29
30.6989,424.45
30.7188,445.1
30.7387,317.62
30.7587,311.51
30.7786,370.33
30.7986,361.76
30.8185,256.31
30.8384,308.84
30.8584,343.95
30.8783,353.58
30.8983,236.39
30.9182,345.1
30.9382,290.45
30.9581,424.51
30.978,335.19
30.998,378.15
31.0179,280.79
31.0379,295.18
31.0578,322.65
31.0778,323.56
31.0977,389.5
31.1176,278.21
31.1376,246.42
31.1575,249.2
31.1775,309.19
31.1974,261.49
31.2173,259.45
31.2373,217.17
31.2572,350.99
31.2772,361.91
31.2971,270.96
31.3171,272.73
31.337,358.21
31.3569,339.41
31.3769,413.66
31.3968,312.24
31.4168,313.21
31.4367,325.11
31.4566,322.07
31.4766,310.12
31.4965,334.73
31.5165,235.9
31.5364,282.85
31.5564,352.18
31.5763,240.11
31.5962,239.27
31.6162,266.54
31.6361,436.84
31.6561,380.96
31.676,144.06
31.696,261.23
31.7159,297.28
31.7358,314.01
31.7558,252.31
31.7757,175.92
31.7957,217.2
31.8156,223.65
31.8355,239.68
31.8555,304.76
31.8754,283.81
31.8954,354.2
31.9153,380.49
31.9353,337.9
31.9552,296.57
31.9751,353.39
31.9951,269.94
32.015,310.25
32.035,376.26
32.0549,317.17
32.0748,274.9
32.0948,230.86
32.1147,260.75
32.1347,300.16
32.1546,211.7
32.1746,203.22
32.1945,255.39
32.2144,273.96
32.2344,333.32
32.2543,284.09
32.2743,303.5
32.2942,278.34
32.3142,265.03
32.3341,213.15
32.354,283.88
32.374,248.7
32.3939,385.34
32.4139,364.04
32.4338,186.75
32.4537,276.1
32.4737,342.98
32.4936,260.57
32.5136,185.65
32.5335,331.2
32.5535,347.67
32.5734,265.78
32.5933,256.96
32.6133,221.85
32.6332,202.52
32.6532,266.99
32.6731,360.52
32.693,444.67
32.713,250.76
32.7329,347.17
32.7529,383.76
32.7728,340.73
32.7928,272.46
32.8127,317.74
32.8326,239.17
32.8526,235.83
32.8725,231.56
32.8925,258.33
32.9124,278.33
32.9324,311.45
32.9523,251.58
32.9722,247.37
32.9922,308.6
33.0121,320.53
33.0321,305.29
33.052,354.2
33.0719,332.05
33.0919,303.51
33.1118,280.46
33.1318,316.27
33.1517,302.17
33.1717,216.04
33.1916,230.01
33.2115,193.27
33.2315,194.85
33.2514,396.59
33.2714,186.84
33.2913,262.96
33.3112,276.37
33.3312,334.14
33.3511,361.78
33.3711,363.11
33.391,253.34
33.411,302.75
33.4309,249.49
33.4508,259.52
33.4708,184.81
33.4907,163.67
33.5107,332.71
33.5306,277.55
33.5506,179.63
33.5705,240.61
33.5904,304.95
33.6104,163.09
33.6303,245.39
33.6503,260.34
33.6702,241.39
33.6901,235.47
33.7101,143.76
33.73,228.68
33.75,328.95
33.7699,274.41
33.7899,238.67
33.8098,322.07
33.8297,280.58
33.8497,156.19
33.8696,247.64
33.8896,250.17
33.9095,188.74
33.9294,334.09
33.9494,297.6
33.9693,304.78
33.9893,171.24
34.0092,209.4
34.0292,229.48
34.0491,217.1
34.069,283.25
34.089,234.51
34.1089,307.68
34.1289,271.24
34.1488,227.74
34.1688,254.48
34.1887,280.23
34.2086,289.51
34.2286,219.44
34.2485,250.04
34.2685,202.91
34.2884,150.28
34.3083,271.16
34.3283,307.28
34.3482,229.18
34.3682,208.21
34.3881,294.91
34.4081,378.84
34.428,204.24
34.4479,260
34.4679,352.46
34.4878,240.35
34.5078,293.68
34.5277,330.03
34.5477,161.17
34.5676,233.44
34.5875,318.22
34.6075,322.81
34.6274,168.18
34.6474,209.75
34.6673,301.55
34.6872,162.58
34.7072,213.77
34.7271,284.44
34.7471,193.99
34.767,235.08
34.787,223.22
34.8069,266.7
34.8268,257.73
34.8468,193.88
34.8667,171.73
34.8867,249.72
34.9066,219.77
34.9265,317.55
34.9465,269.56
34.9664,239.21
34.9864,356.5
35.0063,344.53
35.0263,240.19
35.0462,331.4
35.0661,327.4
35.0861,224.64
35.106,110.7
35.126,252.18
35.1459,194.48
35.1659,262.31
35.1858,271.45
35.2057,216.11
35.2257,321.23
35.2456,303.57
35.2656,204.89
35.2855,234.27
35.3054,233.77
35.3254,164.92
35.3453,253.7
35.3653,268.36
35.3852,162.45
35.4052,258.52
35.4251,158.29
35.445,174.36
35.465,209.48
35.4849,325.94
35.5049,348.35
35.5248,305.17
35.5447,177.58
35.5647,283.02
35.5846,282.61
35.6046,343.5
35.6245,273.41
35.6445,299.48
35.6644,370.74
35.6843,313.01
35.7043,217.49
35.7242,269.24
35.7442,259.41
35.7641,288.71
35.7841,234.66
35.804,170.25
35.8239,241.3
35.8439,229.72
35.8638,226.29
35.8838,226.63
35.9037,321.47
35.9236,172.32
35.9436,211.5
35.9635,259.76
35.9835,406.32
36.0034,277.08
36.0234,226.95
36.0433,224.5
36.0632,108.84
36.0832,174.89
36.1031,304.13
36.1231,340.29
36.143,326.78
36.1629,229.82
36.1829,284.85
36.2028,294.6
36.2228,200.77
36.2427,251.95
36.2627,266.7
36.2826,285.49
36.3025,370.33
36.3225,278.21
36.3424,307.53
36.3624,247.84
36.3823,191.01
36.4023,268.36
36.4222,180.66
36.4421,372
36.4621,324.67
36.482,220.51
36.502,238.11
36.5219,178.29
36.5418,267.69
36.5618,349.1
36.5817,263.95
36.6017,291.3
36.6216,153.53
36.6416,221.34
36.6615,224.06
36.6814,322.22
36.7014,255.28
36.7213,307.7
36.7413,307.77
36.7612,203.3
36.7811,273.77
36.8011,338.79
36.821,207.67
36.841,166.23
36.8609,341.75
36.8809,306.1
36.9008,216.92
36.9207,251.21
36.9407,257.7
36.9606,248.4
36.9806,242.78
37.0005,239.56
37.0205,219.66
37.0404,247.16
37.0603,260.19
37.0803,358.71
37.1002,270.73
37.1202,240.2
37.1401,281.73
37.16,226.76
37.18,130.45
37.1999,369.77
37.2199,195.5
37.2398,95.03
37.2598,243.16
37.2797,267.44
37.2996,195.17
37.3196,148.61
37.3395,222.85
37.3595,285.86
37.3794,225.77
37.3993,278.01
37.4193,202.17
37.4392,144.03
37.4592,11
37.4791,147.82
37.4991,209.14
37.519,310.13
37.5389,247.16
37.5589,272.53
37.5788,327.64
37.5988,307.31
37.6187,211.51
37.6387,161.21
37.6586,238.95
37.6785,283.96
37.6985,286.35
37.7184,291.31
37.7384,326.05
37.7583,282.65
37.7782,213.71
37.7982,224.6
37.8181,208.71
37.8381,247.94
37.858,263.31
37.878,317.14
37.8979,301.06
37.9178,280.85
37.9378,201.55
37.9577,249.33
37.9777,269.93
37.9976,271.69
38.0175,242.12
38.0375,297.99
38.0574,277.46
38.0774,215.65
38.0973,162.03
38.1173,245.69
38.1372,207.17
38.1571,293.35
38.1771,192.86
38.197,192.76
38.217,260.8
38.2369,205.31
38.2569,88.16
38.2768,188.54
38.2967,266.25
38.3167,237.36
38.3366,253.6
38.3566,274.22
38.3765,196.73
38.3964,193.04
38.4164,192.49
38.4363,227.01
38.4563,265.62
38.4762,149.17
38.4962,201.49
38.5161,253.21
38.536,228.48
38.556,160.68
38.5759,197.14
38.5959,299.33
38.6158,271.53
38.6357,267.54
38.6557,299.43
38.6756,295.71
38.6956,241.64
38.7155,193.49
38.7355,247.57
38.7554,261.53
38.7753,239.1
38.7953,313.43
38.8152,307.93
38.8352,245.28
38.8551,279.8
38.8751,304.17
38.895,249.18
38.9149,184.68
38.9349,225.89
38.9548,189.03
38.9748,224.71
38.9947,182.47
39.0146,207.47
39.0346,344.21
39.0545,248.95
39.0745,154.08
39.0944,229.71
39.1144,242.29
39.1343,217.26
39.1542,279.64
39.1742,240.3
39.1941,371.7
39.2141,322.61
39.234,245.15
39.2539,202.32
39.2739,205.69
39.2938,241.64
39.3138,285.46
39.3337,208.45
39.3537,265.47
39.3736,239.28
39.3935,214.78
39.4135,323.53
39.4334,322.88
39.4534,348.7
39.4733,334.53
39.4933,201.45
39.5132,158.66
39.5331,214.2
39.5531,320.15
39.573,226.35
39.593,200.19
39.6129,227.51
39.6328,295.3
39.6528,328.47
39.6727,223.53
39.6927,245.43
39.7126,242.01
39.7326,188.85
39.7525,258.59
39.7724,252.2
39.7924,172.12
39.8123,277.16
39.8323,273.34
39.8522,265.1
39.8721,251.31
39.8921,320.57
39.912,270.84
39.932,328.74
39.9519,228.33
39.9719,229.85
39.9918,218.85
40.0117,262.51
40.0317,222.82
40.0516,316.36
40.0716,276.96
40.0915,323.76
40.1115,231.12
40.1314,320.33
40.1513,262.59
40.1713,234
40.1912,236.36
40.2112,263.63
40.2311,381.11
40.251,256.16
40.271,289.2
40.2909,358.6
40.3109,247.96
40.3308,231.97
40.3508,244.54
40.3707,285.63
40.3906,300.36
40.4106,241.17
40.4305,274.31
40.4505,321.62
40.4704,273.37
40.4904,231.4
40.5103,199.4
40.5302,378.57
40.5502,361.73
40.5701,273.41
40.5901,275.59
40.61,280.92
40.6299,270.67
40.6499,208.33
40.6698,159.02
40.6898,244.75
40.7097,276.06
40.7297,349.23
40.7496,291.19
40.7695,285.05
40.7895,282.35
40.8094,211.55
40.8294,201.72
40.8493,222.06
40.8692,291.48
40.8892,302.87
40.9091,247.9
40.9291,243.97
40.949,313.84
40.969,256.68
40.9889,275.98
41.0088,294.88
41.0288,202.02
41.0487,215.18
41.0687,351.85
41.0886,278.25
41.1086,179.95
41.1285,235.77
41.1484,308.05
41.1684,191.22
41.1883,236.05
41.2083,213.9
41.2282,284.2
41.2481,370.49
41.2681,349.65
41.288,316.75
41.308,213.69
41.3279,319.44
41.3479,292.01
41.3678,340.15
41.3877,322.37
41.4077,335.71
41.4276,213.36
41.4476,198.8
41.4675,252.35
41.4874,211.29
41.5074,253.45
41.5273,384.16
41.5473,306.6
41.5672,333.96
41.5872,235.42
41.6071,180.6
41.627,255.05
41.647,195.59
41.6669,231.04
41.6869,148.12
41.7068,167.2
41.7268,238.29
41.7467,304.07
41.7666,201.68
41.7866,253.39
41.8065,360.46
41.8265,240.29
41.8464,278.9
41.8663,400.83
41.8863,297.39
41.9062,310.56
41.9262,383.65
41.9461,383.86
41.9661,329.78
41.986,357.9
42.0059,264.95
42.0259,206.32
42.0458,205.3
42.0658,332.63
42.0857,358.52
42.1056,323.1
42.1256,411.16
42.1455,277.9
42.1655,349.98
42.1854,401.83
42.2054,263.86
42.2253,239.06
42.2452,280.42
42.2652,349.8
42.2851,308.8
42.3051,340.26
42.325,334.35
42.345,291.45
42.3649,236.18
42.3848,296.49
42.4048,433.16
42.4247,306.71
42.4447,349.48
42.4646,302.69
42.4845,274.49
42.5045,292.21
42.5244,471.14
42.5444,334.64
42.5643,374.39
42.5843,401.36
42.6042,413.69
42.6241,456.18
42.6441,378.5
42.664,461.01
42.684,375.04
42.7039,408.32
42.7238,396.75
42.7438,407.38
42.7637,362.69
42.7837,341.52
42.8036,320.01
42.8236,390.41
42.8435,384.54
42.8634,377.18
42.8834,331.19
42.9033,432.05
42.9233,471.12
42.9432,549.8
42.9632,519.8
42.9831,524.68
43.003,594.44
43.023,547.93
43.0429,611.86
43.0629,538.4
43.0828,597.64
43.1027,683.32
43.1227,598.7
43.1426,661.83
43.1626,653.17
43.1825,741.56
43.2025,665.12
43.2224,729.53
43.2423,713.9
43.2623,716.56
43.2822,929.77
43.3022,1012.46
43.3221,935.53
43.342,961.18
43.362,1147.98
43.3819,1164.84
43.4019,1476.28
43.4218,1492.68
43.4418,1690.37
43.4617,1749.52
43.4816,2003.29
43.5016,2332.46
43.5215,2729.39
43.5415,3055.42
43.5614,3536.01
43.5814,4182.76
43.6013,4728.02
43.6212,5270.47
43.6412,5977.8
43.6611,6690.12
43.6811,7109.21
43.701,7385.22
43.7209,7737.77
43.7409,8077.4
43.7608,8360.27
43.7808,8060.72
43.8007,7926.93
43.8207,7718.02
43.8406,7429.83
43.8605,7006.54
43.8805,6453.37
43.9004,5798.5
43.9204,5371.83
43.9403,4950.62
43.9602,4073.77
43.9802,3875.77
44.0001,3462.32
44.0201,3094.58
44.04,2694.41
44.06,2308.71
44.0799,2193.24
44.0998,1895
44.1198,1828.6
44.1397,1682.51
44.1597,1619.83
44.1796,1566.46
44.1996,1489.53
44.2195,1509.98
44.2394,1445
44.2594,1338.24
44.2793,1363.29
44.2993,1396.16
44.3192,1423.5
44.3391,1464.52
44.3591,1400.75
44.379,1432.57
44.399,1595.89
44.4189,1665.97
44.4389,1653.73
44.4588,1757.22
44.4787,1839.11
44.4987,1976.79
44.5186,2101.59
44.5386,2268.31
44.5585,2451.16
44.5784,2833.74
44.5984,3187.69
44.6183,3492.86
44.6383,3792.93
44.6582,4310.06
44.6782,4574.86
44.6981,4981.48
44.718,5328.71
44.738,5685.96
44.7579,6057.3
44.7779,6161.95
44.7978,6365.28
44.8178,6514.35
44.8377,6372.8
44.8576,6391.59
44.8776,6142.93
44.8975,5880.49
44.9175,5786.31
44.9374,5561.09
44.9573,5077.57
44.9773,4661.69
44.9972,4350.76
45.0172,4072.19
45.0371,3649.31
45.0571,3291.18
45.077,2870.11
45.0969,2681.92
45.1169,2272.13
45.1368,2087.87
45.1568,1838.68
45.1767,1580.75
45.1966,1303.4
45.2166,1184.58
45.2365,1042.59
45.2565,1056.03
45.2764,1019.49
45.2964,986.11
45.3163,925.62
45.3362,811.94
45.3562,752.22
45.3761,770.49
45.3961,712.19
45.416,597.78
45.436,624.08
45.4559,593.9
45.4758,607.28
45.4958,720.55
45.5157,591.48
45.5357,530.9
45.5556,483.63
45.5755,519.17
45.5955,388.41
45.6154,324.09
45.6354,457.03
45.6553,319.06
45.6753,296.24
45.6952,415.98
45.7151,450.44
45.7351,450.68
45.755,407.46
45.775,440
45.7949,430.52
45.8148,477.19
45.8348,352.75
45.8547,403.76
45.8747,356.75
45.8946,375.3
45.9146,480.75
45.9345,407.76
45.9544,462.99
45.9744,399.97
45.9943,392.35
46.0143,335.63
46.0342,407.15
46.0542,459.11
46.0741,389.88
46.094,407.94
46.114,428.36
46.1339,431.26
46.1539,223.32
46.1738,399.04
46.1937,255.25
46.2137,345.29
46.2336,300.11
46.2536,171.87
46.2735,420.67
46.2935,331.67
46.3134,324.16
46.3333,313.29
46.3533,326.56
46.3732,199.32
46.3932,344
46.4131,322.84
46.4331,350.63
46.453,402.64
46.4729,346.93
46.4929,251.75
46.5128,305.99
46.5328,361.72
46.5527,239.59
46.5726,211.63
46.5926,323.37
46.6125,338.76
46.6325,270.15
46.6524,253.43
46.6724,262.52
46.6923,317.38
46.7122,391.51
46.7322,335.95
46.7521,286.09
46.7721,357.9
46.792,309.58
46.8119,305.76
46.8319,229.23
46.8518,163.71
46.8718,343.15
46.8917,248.14
46.9117,309.7
46.9316,301.62
46.9515,265.03
46.9715,337.35
46.9914,253.24
47.0114,340.25
47.0313,314.49
47.0513,258.77
47.0712,388.05
47.0911,406.53
47.1111,386.04
47.131,333.99
47.151,307.4
47.1709,311.53
47.1908,403.85
47.2108,362.2
47.2307,319.69
47.2507,260.49
47.2706,203.37
47.2906,295.3
47.3105,380.42
47.3304,348.54
47.3504,292.51
47.3703,359.32
47.3903,275.84
47.4102,268.47
47.4301,251.39
47.4501,312.46
47.47,287.12
47.49,337.96
47.5099,282.47
47.5299,259.86
47.5498,262.61
47.5697,303.63
47.5897,316.92
47.6096,214.62
47.6296,256.75
47.6495,310.81
47.6695,266.83
47.6894,246.07
47.7093,322.67
47.7293,276.95
47.7492,327.51
47.7692,163.52
47.7891,212.78
47.809,355.6
47.829,313.86
47.8489,223.28
47.8689,233.52
47.8888,316.15
47.9088,331.38
47.9287,280.9
47.9486,196.95
47.9686,250.3
47.9885,209.16
48.0085,275.14
48.0284,180.13
48.0483,202.49
48.0683,284.95
48.0882,431.16
48.1082,264.64
48.1281,265.45
48.1481,300.41
48.168,293.4
48.1879,343.95
48.2079,274.37
48.2278,306.22
48.2478,389.9
48.2677,245.01
48.2877,221.95
48.3076,276.99
48.3275,375.16
48.3475,226.63
48.3674,358.86
48.3874,351.36
48.4073,362.48
48.4272,319.61
48.4472,188.62
48.4671,379.49
48.4871,371.88
48.507,262.23
48.527,283.41
48.5469,251.18
48.5668,324.92
48.5868,223.93
48.6067,305.44
48.6267,307.11
48.6466,291.91
48.6665,316.15
48.6865,357.37
48.7064,376.03
48.7264,301.82
48.7463,347.48
48.7663,306.39
48.7862,314.71
48.8061,297.59
48.8261,251.41
48.846,293.61
48.866,315.74
48.8859,342.1
48.9059,315.08
48.9258,301.25
48.9457,209.1
48.9657,276.04
48.9856,334.55
49.0056,377.74
49.0255,256.24
49.0454,333.3
49.0654,398.89
49.0853,346.43
49.1053,344.63
49.1252,296.43
49.1452,313.7
49.1651,333.96
49.185,422.03
49.205,407.08
49.2249,317.8
49.2449,363.42
49.2648,399.87
49.2847,287.25
49.3047,356.14
49.3246,267.98
49.3446,360.94
49.3645,293.61
49.3845,338.06
49.4044,228.55
49.4243,381.77
49.4443,424.7
49.4642,395.57
49.4842,402.6
49.5041,401.07
49.5241,412.81
49.544,294.31
49.5639,296.95
49.5839,252.8
49.6038,443.98
49.6238,495.66
49.6437,510.76
49.6636,431.53
49.6836,451.6
49.7035,451.08
49.7235,403.5
49.7434,452.09
49.7634,500.55
49.7833,569.74
49.8032,580.74
49.8232,417.5
49.8431,411.97
49.8631,534.46
49.883,486.91
49.9029,509.02
49.9229,635.26
49.9428,659.47
49.9628,603.71
49.9827,635.11
50.0027,485.38
50.0226,461.23
50.0425,584.13
50.0625,594.83
50.0824,526.86
50.1024,593.7
50.1223,596.19
50.1423,591.62
50.1622,624.11
50.1821,654.92
50.2021,671.56
50.222,689.13
50.242,733.81
50.2619,807.59
50.2818,795.98
50.3018,829.95
50.3217,846.67
50.3417,862.3
50.3616,893.29
50.3816,1004.76
50.4015,948.35
50.4214,1078.12
50.4414,1067.27
50.4613,1181.27
50.4813,1191.2
50.5012,1322.54
50.5211,1321.82
50.5411,1360.7
50.561,1432.87
50.581,1595.58
50.6009,1629.11
50.6209,1789.93
50.6408,1836.35
50.6607,1770.51
50.6807,2003.05
50.7006,2038.44
50.7206,2162.77
50.7405,2315.21
50.7605,2504.82
50.7804,2444.24
50.8003,2670.19
50.8203,2639.26
50.8402,2717.98
50.8602,2769.6
50.8801,2664.41
50.9,2533.52
50.92,2806.44
50.9399,2820.92
50.9599,2554.61
50.9798,2476.91
50.9998,2483.51
51.0197,2435.3
51.0396,2189.17
51.0596,2031.83
51.0795,1828.67
51.0995,1862.04
51.1194,1708.47
51.1393,1529.42
51.1593,1503.54
51.1792,1291.79
51.1992,1265.33
51.2191,1130.74
51.2391,930.68
51.259,882.44
51.2789,887.27
51.2989,952.35
51.3188,728.44
51.3388,699.82
51.3587,659.18
51.3787,615.34
51.3986,580.29
51.4185,674.44
51.4385,587.07
51.4584,630.41
51.4784,642.13
51.4983,530.3
51.5182,541
51.5382,436.37
51.5581,530
51.5781,506.75
51.598,417.45
51.618,480.73
51.6379,420.11
51.6578,293.5
51.6778,432.31
51.6977,467.37
51.7177,457.14
51.7376,301.94
51.7575,391.1
51.7775,330.08
51.7974,378.81
51.8174,262.46
51.8373,349.5
51.8573,367.05
51.8772,352.56
51.8971,349.39
51.9171,346.8
51.937,367.73
51.957,284.53
51.9769,320.51
51.9969,244.41
52.0168,299.1
52.0367,280.07
52.0567,344.2
52.0766,335.53
52.0966,354.77
52.1165,358.31
52.1364,395.25
52.1564,373.72
52.1763,258.73
52.1963,299.29
52.2162,315.2
52.2362,323.98
52.2561,350.32
52.276,345.92
52.296,239.94
52.3159,316.03
52.3359,267.73
52.3558,306.31
52.3758,254.46
52.3957,244.14
52.4156,364.94
52.4356,315.52
52.4555,349.55
52.4755,247.82
52.4954,274.1
52.5153,292.2
52.5353,272.26
52.5552,266.84
52.5752,255.35
52.5951,170.15
52.6151,233.3
52.635,213.22
52.6549,306.49
52.6749,213.17
52.6948,311.7
52.7148,418.55
52.7347,297.35
52.7546,254.95
52.7746,282.87
52.7945,184.01
52.8145,306.94
52.8344,284.27
52.8544,220.76
52.8743,277.67
52.8942,328.03
52.9142,339.9
52.9341,275.62
52.9541,345.99
52.974,359.53
52.994,294.19
53.0139,249.44
53.0338,296.48
53.0538,401.99
53.0737,248.99
53.0937,174.62
53.1136,207.31
53.1335,250.37
53.1535,271.09
53.1734,410.7
53.1934,352.87
53.2133,336.59
53.2333,317.97
53.2532,251.06
53.2731,170.64
53.2931,283.03
53.313,361.33
53.333,357.4
53.3529,384.4
53.3728,367.76
53.3928,259.92
53.4127,262.75
53.4327,249.87
53.4526,321.46
53.4726,278.09
53.4925,259.51
53.5124,238.38
53.5324,250.72
53.5523,318.88
53.5723,233.83
53.5922,269.17
53.6122,295.95
53.6321,251.96
53.652,313.98
53.672,335.15
53.6919,288.65
53.7119,290.74
53.7318,190.81
53.7517,295.09
53.7717,252.95
53.7916,256.93
53.8116,260.49
53.8315,211.36
53.8515,268.38
53.8714,157.8
53.8913,219.06
53.9113,291.12
53.9312,192.55
53.9512,294.41
53.9711,272.53
53.991,230.75
54.011,321.29
54.0309,280.45
54.0509,292.34
54.0708,196.05
54.0908,339.68
54.1107,258.62
54.1306,217.41
54.1506,170.64
54.1705,177.42
54.1905,276.39
54.2104,250.03
54.2304,239.84
54.2503,243.19
54.2702,218.55
54.2902,233.1
54.3101,218.23
54.3301,243.16
54.35,223.13
54.3699,234.21
54.3899,324.25
54.4098,274.38
54.4298,250.94
54.4497,239.59
54.4697,284.71
54.4896,229.05
54.5095,275.79
54.5295,271.68
54.5494,149.37
54.5694,207.34
54.5893,323.97
54.6092,91.51
54.6292,258.21
54.6491,218.59
54.6691,203.63
54.689,270.25
54.709,228.64
54.7289,278.57
54.7488,266.73
54.7688,218.34
54.7887,231.27
54.8087,182.45
54.8286,191.37
54.8486,268.3
54.8685,336.64
54.8884,344.69
54.9084,204.76
54.9283,209.89
54.9483,224.9
54.9682,250.98
54.9881,156.23
55.0081,164.28
55.028,257.89
55.048,313.79
55.0679,397.62
55.0879,381.32
55.1078,371.76
55.1277,329.11
55.1477,265.78
55.1676,298.51
55.1876,379.17
55.2075,270
55.2274,303.45
55.2474,257.87
55.2673,306.47
55.2873,296.33
55.3072,334.86
55.3272,232.88
55.3471,266
55.367,229.62
55.387,259.54
55.4069,252.27
55.4269,290.41
55.4468,278.2
55.4668,229.41
55.4867,223.76
55.5066,213.94
55.5266,305.76
55.5465,267.31
55.5665,172.34
55.5864,259.65
55.6063,242.58
55.6263,386.54
55.6462,307.06
55.6662,257.56
55.6861,326.83
55.7061,347.23
55.726,335.16
55.7459,258.26
55.7659,190.49
55.7858,265.88
55.8058,261.32
55.8257,363.14
55.8456,267.78
55.8656,258.3
55.8855,207.29
55.9055,245.9
55.9254,297.9
55.9454,220.62
55.9653,329.53
55.9852,300.96
56.0052,229.41
56.0251,203.23
56.0451,283.28
56.065,293.27
56.085,172.94
56.1049,244.83
56.1248,257.81
56.1448,230.06
56.1647,269.94
56.1847,275.66
56.2046,264.47
56.2245,282.66
56.2445,250.29
56.2644,367.96
56.2844,278.44
56.3043,187.05
56.3243,271.14
56.3442,219
56.3641,282.89
56.3841,267.16
56.404,215.13
56.424,181.64
56.4439,210.04
56.4638,270.06
56.4838,336.06
56.5037,290.75
56.5237,245.51
56.5436,225.65
56.5636,359.95
56.5835,305.53
56.6034,290.23
56.6234,249.07
56.6433,361.22
56.6633,320.73
56.6832,199.21
56.7032,205.43
56.7231,262.81
56.743,301.18
56.763,193.8
56.7829,274.95
56.8029,220.71
56.8228,218.03
56.8427,255.46
56.8627,297.04
56.8826,213.81
56.9026,273.44
56.9225,407.42
56.9425,340.41
56.9624,289.96
56.9823,243.03
57.0023,329.65
57.0222,206.42
57.0422,123.38
57.0621,241.22
57.082,426.43
57.102,290.06
57.1219,329.31
57.1419,295.47
57.1618,242.04
57.1818,315.75
57.2017,328.77
57.2216,175.79
57.2416,214.78
57.2615,248.78
57.2815,361.64
57.3014,387.94
57.3214,326.41
57.3413,262.81
57.3612,379.34
57.3812,291.6
57.4011,212.31
57.4211,302.36
57.441,343.4
57.4609,316.65
57.4809,310.12
57.5008,290.61
57.5208,282.33
57.5407,215.41
57.5607,311.55
57.5806,270.49
57.6005,249.72
57.6205,230.47
57.6404,426.86
57.6604,282.22
57.6803,258.51
57.7003,257.34
57.7202,301.11
57.7401,275.84
57.7601,346.45
57.78,227.56
57.8,328.91
57.8199,232.72
57.8398,229.79
57.8598,235.49
57.8797,239.37
57.8997,313.71
57.9196,249.24
57.9396,228.68
57.9595,192.89
57.9794,308.06
57.9994,347.09
58.0193,260.91
58.0393,315.82
58.0592,274.96
58.0791,312.58
58.0991,255.33
58.119,231.67
58.139,179.24
58.1589,275.65
58.1789,272.84
58.1988,377.53
58.2187,398.97
58.2387,341.38
58.2586,270.59
58.2786,243.5
58.2985,268.69
58.3185,268.37
58.3384,296.69
58.3583,216.88
58.3783,220.06
58.3982,294.69
58.4182,298.81
58.4381,392.6
58.458,216.11
58.478,244.51
58.4979,237.2
58.5179,234.49
58.5378,330.3
58.5578,273.74
58.5777,283.42
58.5976,212.97
58.6176,199.63
58.6375,259.64
58.6575,316.67
58.6774,283.93
58.6973,288.35
58.7173,332.58
58.7372,317.5
58.7572,273.67
58.7771,215.82
58.7971,157.65
58.817,244.87
58.8369,216.78
58.8569,281.36
58.8768,258.96
58.8968,213.25
58.9167,315.65
58.9367,275.51
58.9566,259.65
58.9765,299
58.9965,273.9
59.0164,357.33
59.0364,285.83
59.0563,252.75
59.0762,280.42
59.0962,333.79
59.1161,349.72
59.1361,337.32
59.156,246.13
59.176,267.49
59.1959,331.85
59.2158,331.14
59.2358,424.59
59.2557,345.83
59.2757,277.4
59.2956,269.17
59.3155,323.56
59.3355,206.36
59.3554,193.17
59.3754,284.94
59.3953,327.95
59.4153,377.62
59.4352,278.18
59.4551,212.6
59.4751,262.07
59.495,192.79
59.515,266
59.5349,256.66
59.5549,202.08
59.5748,141.94
59.5947,177.77
59.6147,198.23
59.6346,171.14
59.6546,324.79
59.6745,255.18
59.6944,379.16
59.7144,313.24
59.7343,288.23
59.7543,239.14
59.7742,281.08
59.7942,261.7
59.8141,314.41
59.834,354.63
59.854,149.24
59.8739,314.53
59.8939,275.95
59.9138,269.58
59.9337,288.74
59.9537,281.59
59.9736,279.17
59.9936,253.72
60.0135,331.08
60.0335,305.98
60.0534,278.4
60.0733,267.14
60.0933,237.09
60.1132,246.9
60.1332,300.96
60.1531,333.85
60.1731,262
60.193,143.8
60.2129,240.44
60.2329,314.61
60.2528,311.18
60.2728,213.3
60.2927,289.92
60.3126,199.38
60.3326,274.42
60.3525,294.27
60.3725,288.04
60.3924,391.6
60.4124,244.49
60.4323,299.46
60.4522,255.97
60.4722,283.7
60.4921,309.91
60.5121,241.93
60.532,268.5
60.5519,240.22
60.5719,305.31
60.5918,258.61
60.6118,250.95
60.6317,378.63
60.6517,329.42
60.6716,256.39
60.6915,332.17
60.7115,418.56
60.7314,269.62
60.7514,220.03
60.7713,178.64
60.7913,215.78
60.8112,407.17
60.8311,341.87
60.8511,354.82
60.871,237.76
60.891,309.42
60.9109,277.37
60.9308,192.85
60.9508,210.12
60.9707,259.06
60.9907,274.43
61.0106,276.85
61.0306,297.87
61.0505,234.49
61.0704,238.33
61.0904,281.62
61.1103,238.89
61.1303,185.86
61.1502,287.46
61.1701,275.23
61.1901,415.21
61.21,275.21
61.23,263.99
61.2499,169.5
61.2699,186.42
61.2898,303.42
61.3097,305.89
61.3297,326.23
61.3496,334.18
61.3696,237.31
61.3895,254.47
61.4095,304.6
61.4294,195.75
61.4493,178.71
61.4693,282.25
61.4892,341.83
61.5092,324.46
61.5291,300.92
61.549,279.25
61.569,299.54
61.5889,253.13
61.6089,230.48
61.6288,309.74
61.6488,337.48
61.6687,163.06
61.6886,318.53
61.7086,279.44
61.7285,244.64
61.7485,322.84
61.7684,381.75
61.7883,247.12
61.8083,169.76
61.8282,111.01
61.8482,209.52
61.8681,278.45
61.8881,389.79
61.908,248.52
61.9279,277.41
61.9479,281.85
61.9678,296.49
61.9878,275.78
62.0077,265.33
62.0277,306.63
62.0476,261.55
62.0675,116.62
62.0875,216.59
62.1074,250.79
62.1274,195.64
62.1473,255.56
62.1672,279.75
62.1872,252.45
62.2071,283.74
62.2271,259.99
62.247,338.47
62.267,309.98
62.2869,320.2
62.3068,263.48
62.3268,210.02
62.3467,277.55
62.3667,296.08
62.3866,319.84
62.4065,295.23
62.4265,265.16
62.4464,313.27
62.4664,327.55
62.4863,375.62
62.5063,245.41
62.5262,257.39
62.5461,292.66
62.5661,379.92
62.586,316.19
62.606,273.07
62.6259,307.14
62.6459,296.36
62.6658,319.99
62.6857,267.71
62.7057,297.33
62.7256,231.59
62.7456,316.33
62.7655,294.17
62.7854,229.38
62.8054,210.1
62.8253,260.06
62.8453,261.71
62.8652,255.75
62.8852,363.81
62.9051,243.15
62.925,298.25
62.945,242.26
62.9649,247.41
62.9849,343.92
63.0048,367.47
63.0247,386.52
63.0447,306.91
63.0646,299.35
63.0846,295.56
63.1045,169.6
63.1245,297.73
63.1444,341.93
63.1643,390.93
63.1843,332.56
63.2042,351.36
63.2242,397.96
63.2441,462.45
63.2641,268.12
63.284,306.78
63.3039,354.22
63.3239,398.35
63.3438,309.36
63.3638,223.32
63.3837,284.48
63.4036,301.73
63.4236,274.45
63.4435,391.74
63.4635,431.67
63.4834,237.85
63.5034,249.32
63.5233,347.2
63.5432,291.74
63.5632,275.75
63.5831,239.02
63.6031,369.48
63.623,318.31
63.643,324.76
63.6629,356.28
63.6828,353.75
63.7028,219.2
63.7227,351.29
63.7427,337.1
63.7626,225.71
63.7825,341.4
63.8025,407.06
63.8224,421.34
63.8424,365.9
63.8623,271.49
63.8823,289.71
63.9022,310.31
63.9221,378.95
63.9421,330.92
63.962,337.5
63.982,355.39
64.0019,421.35
64.0218,325.32
64.0418,431.91
64.0617,333.1
64.0817,195.56
64.1016,380.4
64.1216,363.11
64.1415,249.06
64.1614,278.08
64.1814,414.27
64.2013,375.5
64.2213,266.09
64.2412,341.96
64.2612,410.04
64.2811,368.37
64.301,445.56
64.321,332.39
64.3409,492.74
64.3609,470.44
64.3808,460.86
64.4007,353.17
64.4207,392.37
64.4406,396.53
64.4606,530.52
64.4805,490.57
64.5005,566.54
64.5204,553.79
64.5403,537.62
64.5603,441.7
64.5802,408.5
64.6002,535.15
64.6201,624.26
64.64,641.98
64.66,618.52
64.6799,666.49
64.6999,631.01
64.7198,696.73
64.7398,705.89
64.7597,781.12
64.7796,772.98
64.7996,846.04
64.8195,887.34
64.8395,925.65
64.8594,981.22
64.8794,959.43
64.8993,991.44
64.9192,959.83
64.9392,1105.98
64.9591,1155.18
64.9791,1131.91
64.999,1330.81
65.0189,1248.15
65.0389,1203.19
65.0588,1392.33
65.0788,1317.76
65.0987,1271.04
65.1187,1442.64
65.1386,1440.85
65.1585,1398.88
65.1785,1318.95
65.1984,1389.47
65.2184,1335.98
65.2383,1367.93
65.2582,1378.13
65.2782,1118.94
65.2981,1101.01
65.3181,1217.51
65.338,1235.56
65.358,1180.56
65.3779,1097.66
65.3978,1033.82
65.4178,1045.44
65.4377,982.9
65.4577,861.43
65.4776,853.53
65.4976,867.02
65.5175,666.73
65.5374,751.9
65.5574,713.41
65.5773,681.22
65.5973,736.78
65.6172,674.58
65.6371,568.72
65.6571,532.58
65.677,531.07
65.697,451.24
65.7169,443.54
65.7369,456.09
65.7568,481.85
65.7767,452.95
65.7967,401.34
65.8166,459.43
65.8366,440.21
65.8565,432.09
65.8764,511.29
65.8964,443.09
65.9163,371.25
65.9363,350.49
65.9562,403.96
65.9762,321.88
65.9961,400.28
66.016,354.71
66.036,378.29
66.0559,339.91
66.0759,275.55
66.0958,336.92
66.1158,392.28
66.1357,324.82
66.1556,318.09
66.1756,357.67
66.1955,371.69
66.2155,318.34
66.2354,312.77
66.2553,324.03
66.2753,316.51
66.2952,410
66.3152,411.34
66.3351,349.81
66.3551,329.15
66.375,327.56
66.3949,313.23
66.4149,265.39
66.4348,231.65
66.4548,255.88
66.4747,305.34
66.4946,214.24
66.5146,395.96
66.5345,401.76
66.5545,399.83
66.5744,335.38
66.5944,394.87
66.6143,342.82
66.6342,227.58
66.6542,249.23
66.6741,207.88
66.6941,357.5
66.714,425.7
66.734,330.99
66.7539,237.77
66.7738,403.17
66.7938,325.82
66.8137,365.32
66.8337,290.82
66.8536,246.51
66.8735,320.69
66.8935,292.9
66.9134,311.18
66.9334,234.99
66.9533,191.57
66.9733,240.48
66.9932,265.23
67.0131,302.08
67.0331,338.07
67.053,382.04
67.073,293.49
67.0929,363.65
67.1128,333.57
67.1328,304.65
67.1527,271.3
67.1727,261.5
67.1926,375.69
67.2126,336
67.2325,300.78
67.2524,253.55
67.2724,236.29
67.2923,281.55
67.3123,315.52
67.3322,295.47
67.3522,367.71
67.3721,262.16
67.392,346.67
67.412,346.38
67.4319,366.22
67.4519,357.25
67.4718,340.59
67.4917,250.19
67.5117,251.28
67.5316,314.84
67.5516,262.47
67.5715,393.4
67.5915,313.24
67.6114,282.26
67.6313,337.61
67.6513,282.2
67.6712,418.57
67.6912,282.61
67.7111,325.9
67.731,226
67.751,347.23
67.7709,299.03
67.7909,264.71
67.8108,322.93
67.8308,262.08
67.8507,309.71
67.8706,240.9
67.8906,306.56
67.9105,261.28
67.9305,292.95
67.9504,252.89
67.9704,192.31
67.9903,223.33
68.0102,279.39
68.0302,291.71
68.0501,269.8
68.0701,317.94
68.09,297.79
68.1099,335.74
68.1299,392.91
68.1498,301.26
68.1698,290.7
68.1897,211.92
68.2097,330.3
68.2296,342.16
68.2495,296.18
68.2695,310.32
68.2894,284.17
68.3094,267.39
68.3293,314.44
68.3492,333.9
68.3692,241.37
68.3891,357.05
68.4091,359.88
68.429,272.84
68.449,322.9
68.4689,280.98
68.4888,310.39
68.5088,345.53
68.5287,300.42
68.5487,365.59
68.5686,319.88
68.5886,390.89
68.6085,308.67
68.6284,203.67
68.6484,359.99
68.6683,230.54
68.6883,286.84
68.7082,282.8
68.7281,275.27
68.7481,204.05
68.768,285.81
68.788,443.45
68.8079,348.55
68.8279,280.85
68.8478,227.22
68.8677,221.83
68.8877,248.85
68.9076,332.9
68.9276,320.16
68.9475,310.15
68.9674,331.89
68.9874,257.73
69.0073,360.08
69.0273,315.47
69.0472,366.58
69.0672,424.18
69.0871,304.29
69.107,259.49
69.127,218.27
69.1469,266.33
69.1669,307.96
69.1868,279.16
69.2068,343.59
69.2267,395.83
69.2466,380.36
69.2666,356.06
69.2865,280.11
69.3065,241.85
69.3264,304.48
69.3463,376.27
69.3663,345.12
69.3862,331.37
69.4062,226.64
69.4261,314.32
69.4461,328.52
69.466,339.51
69.4859,273.08
69.5059,276.8
69.5258,388.49
69.5458,340.87
69.5657,323.21
69.5857,212.61
69.6056,336.36
69.6255,205.19
69.6455,276.51
69.6654,221.24
69.6854,373.9
69.7053,304.68
69.7252,314.95
69.7452,270.9
69.7651,252.99
69.7851,205.23
69.805,284.81
69.825,240.41
69.8449,313.34
69.8648,369.02
69.8848,306.29
69.9047,381.73
69.9247,234.11
69.9446,186.52
69.9645,311.93
69.9845,328.75
70.0044,280.49
70.0244,359.1
70.0443,385.04
70.0643,292.89
70.0842,319.41
70.1041,340.47
70.1241,259.57
70.144,297.71
70.164,237.78
70.1839,315.38
70.2039,264.41
70.2238,352.17
70.2437,371.83
70.2637,353.89
70.2836,319.1
70.3036,280.72
70.3235,243.71
70.3434,381.06
70.3634,438.73
70.3833,393.34
70.4033,300.87
70.4232,329.77
70.4432,281.45
70.4631,285.56
70.483,252.39
70.503,281.86
70.5229,295.44
70.5429,265.82
70.5628,250.06
70.5827,352.42
70.6027,204.93
70.6226,344.3
70.6426,339.54
70.6625,387.15
70.6825,308.61
70.7024,354.64
70.7223,278.45
70.7423,219.45
70.7622,375.59
70.7822,371.9
70.8021,230.94
70.8221,217.11
70.842,224.67
70.8619,286.39
70.8819,270.99
70.9018,329.32
70.9218,323.07
70.9417,260.52
70.9616,313.29
70.9816,387.69
71.0015,356.88
71.0215,276.81
71.0414,296.51
71.0614,271.15
71.0813,359.1
71.1012,250.81
71.1212,278.33
71.1411,292.24
71.1611,331.6
71.181,407.13
71.2009,356.82
71.2209,340.45
71.2408,363.37
71.2608,301.95
71.2807,341.85
71.3007,289.42
71.3206,336.4
71.3405,313.42
71.3605,432.06
71.3804,410.58
71.4004,267.72
71.4203,303.67
71.4403,312.36
71.4602,301.61
71.4801,339.76
71.5001,234.32
71.52,233.67
71.54,365.24
71.5599,424.61
71.5798,238.71
71.5998,302.93
71.6197,328.77
71.6397,294.31
71.6596,349.53
71.6796,306.37
71.6995,285.71
71.7194,286.74
71.7394,302.58
71.7593,279.15
71.7793,294.44
71.7992,338.11
71.8191,424.49
71.8391,368.57
71.859,371.81
71.879,328.56
71.8989,287.17
71.9189,331.6
71.9388,348.81
71.9587,329.78
71.9787,348.02
71.9986,287.96
72.0186,436.44
72.0385,408.76
72.0585,370.22
72.0784,321.67
72.0983,415.18
72.1183,325.24
72.1382,273.19
72.1582,263.76
72.1781,298.23
72.198,378.42
72.218,325.15
72.2379,258.61
72.2579,329.86
72.2778,405.1
72.2978,364.09
72.3177,481.49
72.3376,360.65
72.3576,356.19
72.3775,316.74
72.3975,412.2
72.4174,255.72
72.4373,247.63
72.4573,278.09
72.4772,304.72
72.4972,303.59
72.5171,324.6
72.5371,228.87
72.557,271.49
72.5769,340.81
72.5969,364.57
72.6168,326.8
72.6368,328.34
72.6567,357.6
72.6767,361.68
72.6966,233.42
72.7165,259.77
72.7365,325.89
72.7564,305.02
72.7764,341.87
72.7963,387.86
72.8162,448.07
72.8362,234.61
72.8561,239.99
72.8761,349.17
72.896,333.81
72.916,382.25
72.9359,285.05
72.9558,249.04
72.9758,313.19
72.9957,265.91
73.0157,354.86
73.0356,389.59
73.0555,353.11
73.0755,225.02
73.0954,367.84
73.1154,465.16
73.1353,421.31
73.1553,323.57
73.1752,425.53
73.1951,396.63
73.2151,335.11
73.235,360.08
73.255,301.6
73.2749,481.33
73.2949,346.04
73.3148,385.27
73.3347,350.42
73.3547,374.22
73.3746,384.86
73.3946,323.99
73.4145,239.75
73.4344,392.28
73.4544,314.99
73.4743,412.4
73.4943,367.73
73.5142,291.79
73.5342,288.85
73.5541,299.82
73.574,504.44
73.594,421.8
73.6139,424.05
73.6339,398.79
73.6538,340.25
73.6737,397.02
73.6937,418.09
73.7136,391.11
73.7336,369.32
73.7535,250.96
73.7735,259.29
73.7934,373.01
73.8133,275.59
73.8333,383.49
73.8532,335.6
73.8732,345.35
73.8931,418.99
73.9131,427.6
73.933,378.29
73.9529,467.8
73.9729,326.19
73.9928,335.94
74.0128,438.29
74.0327,444.31
74.0526,294.38
74.0726,412.5
74.0925,484.65
74.1125,466.66
74.1324,412.14
74.1524,396.65
74.1723,336.31
74.1922,452.56
74.2122,445.62
74.2321,419.21
74.2521,435.91
74.272,408.25
74.2919,584.18
74.3119,560.1
74.3318,675.39
74.3518,611.59
74.3717,596.12
74.3917,601.92
74.4116,699.79
74.4315,634.1
74.4515,792.46
74.4714,715.29
74.4914,778.89
74.5113,712.12
74.5313,837.76
74.5512,950.61
74.5711,968.2
74.5911,1134.66
74.611,1006.69
74.631,991.31
74.6509,1212.19
74.6708,1053.78
74.6908,1236.33
74.7107,1338.37
74.7307,1309.6
74.7506,1258.99
74.7706,1409.07
74.7905,1511.79
74.8104,1352.26
74.8304,1404.34
74.8503,1363.87
74.8703,1355.87
74.8902,1421.84
74.9102,1471.44
74.9301,1313.26
74.95,1228.1
74.97,1341.85
74.9899,1395.14
75.0099,1263.23
75.0298,1200.25
75.0497,1215.54
75.0697,1056.9
75.0896,1077.39
75.1096,1086.48
75.1295,983.36
75.1495,1032.38
75.1694,1107.49
75.1893,937.59
75.2093,864.9
75.2292,936.53
75.2492,745.84
75.2691,754.39
75.289,751.47
75.309,642.48
75.3289,705.02
75.3489,641.69
75.3688,754.4
75.3888,658.62
75.4087,560.89
75.4286,603.12
75.4486,523.1
75.4685,475.45
75.4885,369.42
75.5084,483.58
75.5284,540.63
75.5483,477.49
75.5682,430.73
75.5882,423.74
75.6081,525
75.6281,400.02
75.648,469.37
75.6679,436.56
75.6879,429.26
75.7078,365.62
75.7278,362.85
75.7477,469.66
75.7677,529.78
75.7876,535.56
75.8075,461.79
75.8275,415.46
75.8474,415.89
75.8674,403.04
75.8873,343.69
75.9072,357.68
75.9272,383.75
75.9471,409.16
75.9671,248.97
75.987,356.63
76.007,349.99
76.0269,368.1
76.0468,373.79
76.0668,397.16
76.0867,312.89
76.1067,307.17
76.1266,409.85
76.1466,384.03
76.1665,307.21
76.1864,341.25
76.2064,284.22
76.2263,433.38
76.2463,355.09
76.2662,272.45
76.2861,329.51
76.3061,358.95
76.326,447.23
76.346,397.29
76.3659,335.67
76.3859,383.29
76.4058,391.11
76.4257,422.61
76.4457,317.09
76.4656,317.25
76.4856,362.75
76.5055,345.65
76.5254,411.3
76.5454,417.64
76.5653,302.3
76.5853,403.02
76.6052,359.09
76.6252,270.65
76.6451,204.76
76.665,288.01
76.685,355.94
76.7049,312.66
76.7249,445.69
76.7448,382.14
76.7648,369.88
76.7847,307.83
76.8046,309.36
76.8246,325.7
76.8445,382.24
76.8645,267.58
76.8844,240.81
76.9043,279.05
76.9243,299.69
76.9442,286.1
76.9642,415.87
76.9841,515.68
77.0041,505.3
77.024,421.36
77.0439,291.96
77.0639,299.12
77.0838,370.23
77.1038,359.76
77.1237,318.35
77.1436,379.38
77.1636,417.45
77.1835,378.11
77.2035,294.91
77.2234,329.64
77.2434,326.86
77.2633,322.16
77.2832,328.11
77.3032,298.01
77.3231,304.28
77.3431,340.2
77.363,291.79
77.383,332.07
77.4029,356.77
77.4228,345.7
77.4428,450.72
77.4627,359.85
77.4827,326.15
77.5026,361.48
77.5225,346.57
77.5425,291.27
77.5624,319.01
77.5824,290.99
77.6023,253.85
77.6223,289.45
77.6422,376.31
77.6621,338.74
77.6821,289.9
77.702,216.01
77.722,325.45
77.7419,377.11
77.7618,336.91
77.7818,251.85
77.8017,308.1
77.8217,266.17
77.8416,274.68
77.8616,314.63
77.8815,334.19
77.9014,312.47
77.9214,319.58
77.9413,321.95
77.9613,192.23
77.9812,203.87
78.0012,320.96
78.0211,220.29
78.041,220.92
78.061,185.78
78.0809,335.86
78.1009,321.07
78.1208,362.98
78.1407,373.44
78.1607,336.38
78.1806,309.19
78.2006,354.8
78.2205,353.8
78.2405,299.07
78.2604,354.91
78.2803,263.24
78.3003,284.6
78.3202,403.22
78.3402,321.52
78.3601,191.59
78.38,260.06
78.4,338.56
78.4199,407.76
78.4399,343.38
78.4598,374.45
78.4798,252.63
78.4997,266.9
78.5196,204.56
78.5396,232.18
78.5595,385.53
78.5795,391.76
78.5994,323.84
78.6194,353.26
78.6393,319.89
78.6592,385.55
78.6792,337.73
78.6991,374.98
78.7191,331.19
78.739,177.48
78.7589,269.77
78.7789,375.57
78.7988,364.65
78.8188,320.16
78.8387,304.25
78.8587,355.7
78.8786,303.04
78.8985,380.36
78.9185,416.18
78.9384,322.96
78.9584,217.91
78.9783,246.33
78.9982,342.29
79.0182,343.86
79.0381,284.48
79.0581,263.15
79.078,380.19
79.098,366.17
79.1179,347.6
79.1378,374.32
79.1578,175.11
79.1777,193.28
79.1977,259.03
79.2176,354.15
79.2376,219.84
79.2575,235.5
79.2774,307.07
79.2974,382.81
79.3173,369.81
79.3373,295.5
79.3572,386.08
79.3771,338.03
79.3971,248.33
79.417,300.89
79.437,341.06
79.4569,345.02
79.4769,310.75
79.4968,233.84
79.5167,272.81
79.5367,246.48
79.5566,323.34
79.5766,286.23
79.5965,221.56
79.6164,381.23
79.6364,410.78
79.6563,414.63
79.6763,347.52
79.6962,350.56
79.7162,367.19
79.7361,406.98
79.756,276.27
79.776,276.97
79.7959,298.19
79.8159,300.54
79.8358,389.06
79.8558,384.72
79.8757,380.01
79.8956,355.34
79.9156,358.88
79.9355,283.16
79.9555,236.92
79.9754,333.19
79.9953,404.52
80.0153,358.9
80.0352,357.48
80.0552,378.36
80.0751,398
80.0951,274.24
80.115,311.47
80.1349,273.01
80.1549,222
80.1748,359.75
80.1948,294.83
80.2147,359.83
80.2346,240.69
80.2546,289.8
80.2745,283.48
80.2945,289.92
80.3144,353.43
80.3344,297.09
80.3543,341.41
80.3742,266.93
80.3942,273.87
80.4141,309.79
80.4341,301.84
80.454,268.64
80.474,263.91
80.4939,265.83
80.5138,238.78
80.5338,382.43
80.5537,316.52
80.5737,350.19
80.5936,391.63
80.6135,285.68
80.6335,299.42
80.6534,244.92
80.6734,321.86
80.6933,331.93
80.7133,415.9
80.7332,389.02
80.7531,323.53
80.7731,303.15
80.793,299.26
80.813,302.12
80.8329,252.24
80.8529,316.81
80.8728,287.33
80.8927,285.55
80.9127,337.04
80.9326,354.61
80.9526,283.89
80.9725,306.21
80.9924,210.43
81.0124,299.65
81.0323,277.28
81.0523,351.8
81.0722,259.16
81.0922,233.53
81.1121,281.88
81.132,378.69
81.152,302.89
81.1719,371.96
81.1919,311.49
81.2118,244.9
81.2317,336.62
81.2517,395.71
81.2716,375.07
81.2916,304.34
81.3115,248.71
81.3315,226.73
81.3514,316.24
81.3713,430.71
81.3913,370.48
81.4112,299.73
81.4312,342.68
81.4511,422.85
81.4711,449.51
81.491,438.49
81.5109,340.17
81.5309,453.38
81.5508,405.31
81.5708,427.02
81.5907,293.46
81.6106,385.04
81.6306,482.52
81.6505,438.3
81.6705,405.17
81.6904,385.3
81.7104,411.03
81.7303,482.24
81.7502,388.36
81.7702,434.27
81.7901,488.98
81.8101,532.58
81.83,550.9
81.8499,537.36
81.8699,619.51
81.8898,690.14
81.9098,659.23
81.9297,642.58
81.9497,689.16
81.9696,713.41
81.9895,656.02
82.0095,604.29
82.0294,828.41
82.0494,807.89
82.0693,816.47
82.0893,893.77
82.1092,1099.66
82.1291,1067.91
82.1491,1031.84
82.169,1046.31
82.189,1039.74
82.2089,1096.41
82.2288,1291.23
82.2488,1231.13
82.2687,1374.65
82.2887,1395.6
82.3086,1415.11
82.3286,1558.75
82.3485,1578.07
82.3684,1742.18
82.3884,1775.66
82.4083,1659.63
82.4283,1632.05
82.4482,1787.72
82.4681,1907.74
82.4881,1866.21
82.508,1746.5
82.528,1827.72
82.5479,1911.9
82.5679,1795.79
82.5878,1715.05
82.6077,1745.82
82.6277,1780.12
82.6476,1763.13
82.6676,1883.44
82.6875,1599.97
82.7075,1498.79
82.7274,1430.58
82.7473,1347.79
82.7673,1308.67
82.7872,1354.06
82.8072,1352.86
82.8271,1192.06
82.847,1103.95
82.867,1006.73
82.8869,1042.5
82.9069,1089.08
82.9268,1026.38
82.9468,973.54
82.9667,858.11
82.9866,921.4
83.0066,857.71
83.0265,893.58
83.0465,838.52
83.0664,655.53
83.0863,737.94
83.1063,589.96
83.1262,549.92
83.1462,652.09
83.1661,651.75
83.1861,526.44
83.206,450.06
83.2259,465.43
83.2459,510
83.2658,421.88
83.2858,384.22
83.3057,399.23
83.3257,453.06
83.3456,537.23
83.3655,392.77
83.3855,346.32
83.4054,481.95
83.4254,372.64
83.4453,361.46
83.4652,403.16
83.4852,396.77
83.5051,404.75
83.5251,482.5
83.545,395.99
83.565,383.36
83.5849,344.83
83.6048,372.97
83.6248,299.2
83.6447,287.65
83.6647,396.94
83.6846,409.82
83.7045,361.93
83.7245,324.54
83.7444,343.35
83.7644,390.66
83.7843,359
83.8043,207.34
83.8242,289.29
83.8441,373.58
83.8641,322.47
83.884,412.36
83.904,346.12
83.9239,284.82
83.9439,349.13
83.9638,280.51
83.9837,347.15
84.0037,236.76
84.0236,277.11
84.0436,270.16
84.0635,394.15
84.0834,325.43
84.1034,435.23
84.1233,360.74
84.1433,369.4
84.1632,344.14
84.1832,249.63
84.2031,310.84
84.223,354.18
84.243,354.99
84.2629,325.05
84.2829,235.38
84.3028,404.7
84.3227,303.57
84.3427,300
84.3626,317.75
84.3826,268.38
84.4025,284.42
84.4225,452.91
84.4424,341.75
84.4623,312.21
84.4823,269.09
84.5022,259.5
84.5222,331.31
84.5421,427.95
84.5621,337.9
84.582,319.13
84.6019,290.41
84.6219,322.23
84.6418,367.58
84.6618,341.37
84.6817,268.27
84.7016,167.25
84.7216,329.2
84.7415,262.61
84.7615,208.09
84.7814,395.78
84.8014,257.23
84.8213,274.92
84.8412,194.5
84.8612,312.77
84.8811,304.08
84.9011,357.26
84.921,346.68
84.9409,255.76
84.9609,262.17
84.9808,277.46
85.0008,310.86
85.0207,285.78
85.0407,303.93
85.0606,204.55
85.0805,171
85.1005,233.36
85.1204,256.8
85.1404,298.31
85.1603,342.42
85.1803,339.95
85.2002,322.96
85.2201,247
85.2401,360
85.26,306.86
85.28,445.01
85.2999,295
85.3198,298.2
85.3398,298.65
85.3597,321.9
85.3797,352.98
85.3996,266.58
85.4196,224.62
85.4395,314.1
85.4594,226.8
85.4794,350.84
85.4993,343.37
85.5193,270.85
85.5392,347.95
85.5591,308.75
85.5791,266.64
85.599,319.96
85.619,209.6
85.6389,313.15
85.6589,285.15
85.6788,318.04
85.6987,295.36
85.7187,168.96
85.7386,230.24
85.7586,276.86
85.7785,249.66
85.7985,126.44
85.8184,201.73
85.8383,309.78
85.8583,210.03
85.8782,204.15
85.8982,232
85.9181,223.28
85.938,160.12
85.958,229.06
85.9779,307.72
85.9979,290.44
86.0178,297.24
86.0378,346.68
86.0577,285.82
86.0776,254.69
86.0976,256.82
86.1175,296.14
86.1375,233.2
86.1574,238.45
86.1773,257.54
86.1973,274.34
86.2172,277.48
86.2372,292.36
86.2571,279.84
86.2771,314.05
86.297,165.1
86.3169,360.17
86.3369,359.45
86.3568,325.62
86.3768,274.78
86.3967,206.85
86.4167,174.61
86.4366,254.51
86.4565,310.11
86.4765,399.7
86.4964,316.66
86.5164,271.8
86.5363,248.05
86.5562,236.41
86.5762,276.05
86.5961,351
86.6161,302.02
86.636,328.33
86.656,337.9
86.6759,215.11
86.6958,186.82
86.7158,248.15
86.7357,217.18
86.7557,321.82
86.7756,310.53
86.7956,312.38
86.8155,281.62
86.8354,214.05
86.8554,263.28
86.8753,295.08
86.8953,223.8
86.9152,348.19
86.9351,237.61
86.9551,330.6
86.975,280.34
86.995,285.56
87.0149,312.06
87.0349,196.05
87.0548,262.76
87.0747,262.12
87.0947,238.63
87.1146,295.2
87.1346,295.49
87.1545,288.7
87.1744,338.83
87.1944,367.77
87.2143,301.79
87.2343,268.81
87.2542,167.07
87.2742,230.98
87.2941,346.3
87.314,253.6
87.334,341.17
87.3539,338.19
87.3739,161.17
87.3938,304.56
87.4138,286.31
87.4337,284.88
87.4536,275.6
87.4736,264.68
87.4935,216.99
87.5135,230.7
87.5334,220.36
87.5533,212.12
87.5733,265.46
87.5932,273.95
87.6132,341.05
87.6331,288.56
87.6531,271.76
87.673,281.98
87.6929,236.67
87.7129,170.81
87.7328,255.02
87.7528,290.66
87.7727,403.75
87.7926,352.54
87.8126,348.7
87.8325,250.62
87.8525,335.3
87.8724,247.92
87.8924,300.47
87.9123,346.37
87.9322,179.42
87.9522,210.95
87.9721,229.47
87.9921,342.41
88.012,385.06
88.032,281.87
88.0519,263.25
88.0718,267.82
88.0918,226.91
88.1117,198.99
88.1317,220.62
88.1516,296.55
88.1715,239.1
88.1915,237.37
88.2114,306.6
88.2314,362.08
88.2513,351.95
88.2713,339.73
88.2912,270.55
88.3111,328.56
88.3311,335.74
88.351,302.53
88.371,181.23
88.3909,215.71
88.4108,266.54
88.4308,210.78
88.4507,323.16
88.4707,324.45
88.4906,395.67
88.5106,333.91
88.5305,309.13
88.5504,338.12
88.5704,350.17
88.5903,359
88.6103,365.15
88.6302,349.93
88.6502,352.47
88.6701,269.69
88.69,339.11
88.71,358.67
88.7299,386.42
88.7499,412.52
88.7698,343.15
88.7897,356.36
88.8097,325.42
88.8296,256.03
88.8496,422.1
88.8695,332.41
88.8895,287.59
88.9094,326.52
88.9293,278.44
88.9493,312.37
88.9692,345.53
88.9892,384.94
89.0091,320.33
89.029,264.41
89.049,191.9
89.0689,283.64
89.0889,390.88
89.1088,477.37
89.1288,323.15
89.1487,362.89
89.1686,360.93
89.1886,344.81
89.2085,242.77
89.2285,365.83
89.2484,354.99
89.2684,312.86
89.2883,426.74
89.3082,432.27
89.3282,330.05
89.3481,328.78
89.3681,375.72
89.388,347.67
89.4079,402.61
89.4279,313.45
89.4478,348.4
89.4678,365.09
89.4877,368.68
89.5077,327.59
89.5276,363.53
89.5475,484.86
89.5675,372.1
89.5874,279.2
89.6074,403.4
89.6273,401.62
89.6472,317.71
89.6672,426.22
89.6871,375.45
89.7071,413.82
89.727,493.65
89.747,407.73
89.7669,234.42
89.7868,284.48
89.8068,417.29
89.8267,495.88
89.8467,490.55
89.8666,400.69
89.8866,469.92
89.9065,557.39
89.9264,454.74
89.9464,473.88
89.9663,493.54
89.9863,499.73
90.0062,477.64
90.0261,523.94
90.0461,490.37
90.066,498.29
90.086,465.95
90.1059,463.52
90.1259,622.88
90.1458,538.53
90.1657,483.19
90.1857,488.74
90.2056,622.27
90.2256,644.84
90.2455,717.34
90.2654,823.94
90.2854,802.49
90.3053,798.98
90.3253,670.1
90.3452,712.47
90.3652,823.26
90.3851,787.3
90.405,910.67
90.425,966.24
90.4449,827.67
90.4649,863.48
90.4848,995.99
90.5048,1039.49
90.5247,986.39
90.5446,1108.22
90.5646,1178.84
90.5845,1071.25
90.6045,1182.17
90.6244,1111.09
90.6443,1090.05
90.6643,1170.76
90.6842,1170.87
90.7042,1151.8
90.7241,1246.41
90.7441,1367.1
90.764,1261.11
90.7839,1162.09
90.8039,1277.15
90.8238,1306.67
90.8438,1312.92
90.8637,1397.68
90.8836,1233.8
90.9036,1208.24
90.9235,1287.22
90.9435,1217.96
90.9634,1203.23
90.9834,1123.19
91.0033,999.12
91.0232,1042.73
91.0432,1033.4
91.0631,1027.19
91.0831,1073.19
91.103,1055.27
91.123,979.15
91.1429,863.86
91.1628,836.86
91.1828,761.09
91.2027,798.41
91.2227,817.54
91.2426,704.37
91.2625,649.33
91.2825,657.66
91.3024,724.9
91.3224,709.93
91.3423,593.37
91.3623,669.45
91.3822,527.18
91.4021,497.24
91.4221,468.76
91.442,527.9
91.462,501.27
91.4819,554.68
91.5018,484.19
91.5218,472.79
91.5417,495.46
91.5617,458.58
91.5816,622
91.6016,606.89
91.6215,537.24
91.6414,559.58
91.6614,459.72
91.6813,478.34
91.7013,347.41
91.7212,327.56
91.7412,391.03
91.7611,363.68
91.781,333.31
91.801,301.1
91.8209,264.04
91.8409,279.41
91.8608,322.48
91.8807,373.09
91.9007,236.66
91.9206,312.91
91.9406,370.46
91.9605,426.85
91.9805,291.54
92.0004,268.16
92.0203,337.02
92.0403,442.86
92.0602,347.05
92.0802,305.85
92.1001,215.41
92.12,353.68
92.14,361.07
92.1599,272.84
92.1799,369.42
92.1998,274.6
92.2198,409.03
92.2397,355.2
92.2596,321.68
92.2796,261.39
92.2995,343.23
92.3195,339.65
92.3394,278.28
92.3594,331.24
92.3793,314
92.3992,256.49
92.4192,323.45
92.4391,306.7
92.4591,279.75
92.479,360.1
92.4989,220.48
92.5189,371.74
92.5388,389.77
92.5588,307.41
92.5787,358.51
92.5987,342.32
92.6186,320.26
92.6385,367.91
92.6585,377.46
92.6784,415.02
92.6984,285.19
92.7183,286.51
92.7383,201.97
92.7582,272.54
92.7781,208.07
92.7981,248.28
92.818,208.14
92.838,283.93
92.8579,248.91
92.8778,163.77
92.8978,208.87
92.9177,233.61
92.9377,321.36
92.9576,319.93
92.9776,314.4
92.9975,331.4
93.0174,290.07
93.0374,321.06
93.0573,332.12
93.0773,407.81
93.0972,331.29
93.1171,186.49
93.1371,251.13
93.157,326.09
93.177,348.29
93.1969,476.45
93.2169,398.78
93.2368,250.34
93.2567,205.83
93.2767,315.11
93.2966,333.95
93.3166,311.75
93.3365,306.14
93.3565,340.25
93.3764,259.09
93.3963,271.11
93.4163,286.47
93.4362,267.99
93.4562,381.46
93.4761,328.12
93.496,349.86
93.516,154.09
93.5359,235.15
93.5559,384.3
93.5758,344.9
93.5958,347.41
93.6157,305.29
93.6356,380.67
93.6556,264.35
93.6755,240.72
93.6955,263.11
93.7154,305.97
93.7353,367.75
93.7553,349.41
93.7752,302.29
93.7952,248.92
93.8151,281.21
93.8351,262.5
93.855,275.9
93.8749,253.19
93.8949,172.5
93.9148,183.34
93.9348,312.83
93.9547,354.05
93.9747,425.94
93.9946,245.41
94.0145,291.31
94.0345,242.87
94.0544,313.33
94.0744,331.66
94.0943,334.89
94.1142,204.67
94.1342,338.27
94.1541,396.08
94.1741,301.06
94.194,223.32
94.214,290.8
94.2339,337.6
94.2538,403.18
94.2738,327.6
94.2937,265.26
94.3137,308.69
94.3336,359.87
94.3535,272.25
94.3735,250.79
94.3934,240.7
94.4134,242.45
94.4333,287.51
94.4533,225.88
94.4732,220.75
94.4931,217.88
94.5131,256.17
94.533,209.33
94.553,320.2
94.5729,335.76
94.5929,293.35
94.6128,265.43
94.6327,323.01
94.6527,194.34
94.6726,190.73
94.6926,304.83
94.7125,363.92
94.7324,267.75
94.7524,214.15
94.7723,213.55
94.7923,188.54
94.8122,300.7
94.8322,428.78
94.8521,230.39
94.872,295.63
94.892,170.7
94.9119,170.47
94.9319,331.86
94.9518,406.74
94.9717,251.35
94.9917,281.06
95.0116,271.42
95.0316,280.47
95.0515,293.42
95.0715,396.58
95.0914,272.15
95.1113,230.45
95.1313,211.68
95.1512,272.89
95.1712,224.61
95.1911,266.45
95.2111,303.23
95.231,204.41
95.2509,232.01
95.2709,287.47
95.2908,259.07
95.3108,275.46
95.3307,341.02
95.3506,315.94
95.3706,395.18
95.3905,369.96
95.4105,264.45
95.4304,373.48
95.4504,423.27
95.4703,337.83
95.4902,319.4
95.5102,247.5
95.5301,231.2
95.5501,296.71
95.57,338.5
95.5899,461.49
95.6099,451.14
95.6298,581.57
95.6498,347.19
95.6697,293.72
95.6897,376.44
95.7096,396.24
95.7295,516.51
95.7495,602.24
95.7694,533.29
95.7894,609.88
95.8093,519.71
95.8293,478.69
95.8492,435.47
95.8691,505.42
95.8891,521.6
95.909,618.62
95.929,618.04
95.9489,588.53
95.9688,655.15
95.9888,515.83
96.0087,563.44
96.0287,640.74
96.0486,715.19
96.0686,679.02
96.0885,660.32
96.1084,603.46
96.1284,601.83
96.1483,601.52
96.1683,650.7
96.1882,730.13
96.2081,600.16
96.2281,533.59
96.248,586.76
96.268,520.05
96.2879,603.2
96.3079,488.08
96.3278,524.75
96.3477,486.81
96.3677,574.48
96.3876,541.18
96.4076,474.57
96.4275,355.41
96.4475,511.54
96.4674,578.23
96.4873,437.62
96.5073,468.4
96.5272,531.3
96.5472,458.37
96.5671,382.57
96.587,323.3
96.607,420.84
96.6269,363.08
96.6469,316.3
96.6668,264.09
96.6868,379.26
96.7067,414.59
96.7266,500.8
96.7466,397.89
96.7665,344.71
96.7865,266.57
96.8064,225.89
96.8263,265.87
96.8463,302.45
96.8662,393.84
96.8862,315.45
96.9061,352.13
96.9261,213.7
96.946,160.87
96.9659,353.32
96.9859,346
97.0058,292.8
97.0258,260.11
97.0457,341.85
97.0657,283.57
97.0856,401.52
97.1055,281.27
97.1255,275.44
97.1454,257.39
97.1654,215.57
97.1853,187.57
97.2052,342.21
97.2252,324.32
97.2451,270.37
97.2651,160.49
97.285,151.51
97.305,383.91
97.3249,263.66
97.3448,271.35
97.3648,255.54
97.3847,321.01
97.4047,236.43
97.4246,203.32
97.4445,270.18
97.4645,415.68
97.4844,291.96
97.5044,254.95
97.5243,337.76
97.5443,294.92
97.5642,254.02
97.5841,327.77
97.6041,216.94
97.624,227.44
97.644,350.18
97.6639,307.73
97.6839,310.3
97.7038,314.98
97.7237,372.18
97.7437,401.07
97.7636,381.02
97.7836,270.55
97.8035,298.89
97.8234,342.52
97.8434,210.55
97.8633,300.66
97.8833,461.98
97.9032,278.17
97.9232,300.04
97.9431,421.84
97.963,322.57
97.983,307.2
98.0029,364.93
98.0229,335.99
98.0428,352.11
98.0628,348.27
98.0827,358.99
98.1026,340.17
98.1226,322.63
98.1425,184.06
98.1625,348.12
98.1824,290.18
98.2023,279.69
98.2223,232.85
98.2422,354.21
98.2622,211.42
98.2821,388.73
98.3021,376.67
98.322,348.13
98.3419,361.45
98.3619,425.74
98.3818,332.53
98.4018,321.41
98.4217,371.01
98.4416,341.77
98.4616,432.17
98.4815,508.15
98.5015,381.34
98.5214,501.14
98.5414,452.2
98.5613,470.43
98.5812,546.77
98.6012,589.39
98.6211,463.12
98.6411,504.92
98.661,471.24
98.681,411.59
98.7009,445.43
98.7208,466.41
98.7408,440.51
98.7607,660.99
98.7807,642.61
98.8006,522.69
98.8205,709.07
98.8405,661.29
98.8604,645.65
98.8804,719.48
98.9003,703.25
98.9203,667.76
98.9402,610.51
98.9601,603.83
98.9801,664.01
99,767.14
99.02,615.29
99.0399,729.86
99.0598,733.01
99.0798,860.23
99.0997,819.36
99.1197,722.47
99.1396,785.15
99.1596,718.46
99.1795,646.61
99.1994,531.65
99.2194,664.42
99.2393,640.34
99.2593,623.99
99.2792,665.32
99.2992,711.91
99.3191,782.71
99.339,572.89
99.359,468.28
99.3789,552.04
99.3989,573.93
99.4188,549.76
99.4387,535.89
99.4587,589.93
99.4786,557.24
99.4986,615.76
99.5185,606.42
99.5385,503.23
99.5584,433.78
99.5783,560.16
99.5983,454.64
99.6182,480.09
99.6382,327.35
99.6581,388.74
99.678,393.03
99.698,385.06
99.7179,406.92
99.7379,314.05
99.7578,416.46
99.7778,344.34
99.7977,290.52
99.8176,253.75
99.8376,233.29
99.8575,244.36
99.8775,204.86
99.8974,179.86
99.9174,349.23
99.9373,373.6
99.9572,342.84
99.9772,365.79
99.9971,385.48
100.017,259.68
100.037,448.03
100.057,393.21
100.077,180.34
100.097,172.05
100.117,309.29
100.137,337.01
100.157,296.12
100.177,336.02
100.197,389.86
100.216,296.06
100.236,331.8
100.256,117.49
100.276,234.36
100.296,243.75
100.316,228.5
100.336,281.57
100.356,312.38
100.376,246.88
100.396,261.36
100.416,245.25
100.436,278.41
100.456,279.37
100.476,186.44
100.496,354.94
100.516,214.69
100.536,187.15
100.555,218.03
100.575,226.68
100.595,103.09
100.615,226.76
100.635,318.56
100.655,352.45
100.675,229.73
100.695,201.09
100.715,279.69
100.735,287.55
100.755,189.09
100.775,315.52
100.795,234.84
100.815,281.27
100.835,222.3
100.855,268.62
100.875,252.01
100.895,222.1
100.914,218.34
100.934,252.94
100.954,282.17
100.974,316.81
100.994,447.34
101.014,307.39
101.034,235.21
101.054,216.87
101.074,329.34
101.094,302.89
101.114,330.25
101.134,372.15
101.154,294.99
101.174,429.59
101.194,251.85
101.214,328.92
101.234,387.87
101.253,324.18
101.273,283.1
101.293,273.79
101.313,219.54
101.333,214.9
101.353,344.02
101.373,349.76
101.393,214.35
101.413,228.27
101.433,215.54
101.453,229.01
101.473,214.3
101.493,218.25
101.513,219.93
101.533,365.29
101.553,380.83
101.573,400.69
101.592,218.16
101.612,246.3
101.632,283.99
101.652,337.36
101.672,340.61
101.692,306.29
101.712,257.04
101.732,272.6
101.752,235.45
101.772,303.02
101.792,268.64
101.812,251.66
101.832,292.54
101.852,155.98
101.872,197.3
101.892,160.21
101.912,291.71
101.931,266.98
101.951,202.25
101.971,239.2
101.991,321.14
102.011,238.45
102.031,219.62
102.051,247.52
102.071,171.89
102.091,268.24
102.111,225.92
102.131,349.04
102.151,338.3
102.171,264.14
102.191,355.38
102.211,383.49
102.231,342
102.251,303.73
102.271,170.91
102.29,271.76
102.31,327.64
102.33,217.02
102.35,277.7
102.37,212.35
102.39,250.55
102.41,349.56
102.43,233.11
102.45,352.91
102.47,266.85
102.49,186.56
102.51,168.14
102.53,253.67
102.55,263.84
102.57,226.4
102.59,319.08
102.61,349.14
102.629,333.26
102.649,255.57
102.669,242.47
102.689,193.27
102.709,198.14
102.729,350.51
102.749,381.86
102.769,237.65
102.789,262.98
102.809,349.5
102.829,140.01
102.849,188.9
102.869,293.58
102.889,252.15
102.909,269.4
102.929,343.93
102.949,239.79
102.968,142.33
102.988,275.6
103.008,362.71
103.028,251.73
103.048,325.2
103.068,301.27
103.088,227.56
103.108,239.98
103.128,348.12
103.148,264.59
103.168,164.08
103.188,283.85
103.208,183.56
103.228,164.91
103.248,204.96
103.268,201.99
103.288,227.03
103.307,218.48
103.327,232.05
103.347,281.01
103.367,321.4
103.387,404.1
103.407,204.9
103.427,260.69
103.447,335.41
103.467,217.04
103.487,236.71
103.507,221.16
103.527,262.24
103.547,228.49
103.567,330.84
103.587,282.12
103.607,272.56
103.627,193.81
103.646,215.19
103.666,239.19
103.686,260.48
103.706,273.07
103.726,354.73
103.746,276.81
103.766,185.83
103.786,227.75
103.806,182.12
103.826,223.48
103.846,261.57
103.866,294.07
103.886,214.38
103.906,280.58
103.926,282.72
103.946,292.84
103.966,260.04
103.986,200.38
104.005,314.04
104.025,319.32
104.045,413.7
104.065,386.24
104.085,273.22
104.105,298.81
104.125,370.23
104.145,287.2
104.165,276.51
104.185,289.69
104.205,235.1
104.225,229.02
104.245,368.19
104.265,426.6
104.285,338.47
104.305,218.91
104.325,187.17
104.344,284.48
104.364,339.22
104.384,252.43
104.404,289.49
104.424,209.89
104.444,334.01
104.464,356.76
104.484,212.29
104.504,198.5
104.524,324.21
104.544,118.02
104.564,256.84
104.584,264.78
104.604,201.94
104.624,346.34
104.644,338.55
104.664,348.96
104.683,270.29
104.703,274.15
104.723,223.25
104.743,324.17
104.763,221.75
104.783,313.7
104.803,325.17
104.823,253.38
104.843,255.62
104.863,237.15
104.883,120.52
104.903,183.87
104.923,270.47
104.943,246.64
104.963,343.73
104.983,273.07
105.003,124.49
105.022,317.55
105.042,289.74
105.062,276.78
105.082,259.91
105.102,236.83
105.122,216.22
105.142,217.78
105.162,166.68
105.182,236.66
105.202,248.75
105.222,325.29
105.242,251.83
105.262,241.19
105.282,237.76
105.302,321.31
105.322,444.66
105.342,438.43
105.362,276.37
105.381,321.69
105.401,204.86
105.421,309.61
105.441,299.88
105.461,176.69
105.481,342.54
105.501,326.09
105.521,312.59
105.541,259.78
105.561,169.8
105.581,258.66
105.601,320.03
105.621,331.96
105.641,214.09
105.661,88.79
105.681,230.35
105.701,224.46
105.72,261.25
105.74,206.37
105.76,152.4
105.78,235.96
105.8,190.71
105.82,220.65
105.84,386.98
105.86,360.51
105.88,216.38
105.9,116.38
105.92,216.42
105.94,125.84
105.96,108.22
105.98,230.77
106,133.95
106.02,308.25
106.04,408.14
106.059,389.39
106.079,345.22
106.099,367.65
106.119,233.62
106.139,244.72
106.159,207.3
106.179,270.41
106.199,270.05
106.219,147.62
106.239,298.55
106.259,270
106.279,280.68
106.299,370.02
106.319,223.28
106.339,253.26
106.359,245.7
106.379,295.75
106.398,80.7
106.418,184.72
106.438,291.4
106.458,276.2
106.478,366.74
106.498,258.68
106.518,210.63
106.538,257.45
106.558,376.14
106.578,453.63
106.598,311.7
106.618,312.94
106.638,306.46
106.658,245.77
106.678,220.95
106.698,320.17
106.718,335.26
106.737,271.12
106.757,206.22
106.777,179.89
106.797,242.1
106.817,215.93
106.837,280.33
106.857,278.23
106.877,252.07
106.897,267.92
106.917,253.87
106.937,390.75
106.957,327.19
106.977,248.87
106.997,203.61
107.017,177.41
107.037,188.74
107.057,222.38
107.077,233.4
107.096,198.48
107.116,251
107.136,275.75
107.156,342.76
107.176,334.87
107.196,225.2
107.216,300.23
107.236,333.05
107.256,250.64
107.276,341.46
107.296,397.37
107.316,421.74
107.336,302.24
107.356,190.54
107.376,283.1
107.396,423.32
107.416,238.68
107.435,298.54
107.455,375.07
107.475,289.31
107.495,283.09
107.515,188.35
107.535,404.95
107.555,251.09
107.575,300.11
107.595,259.76
107.615,311.72
107.635,348.38
107.655,228.7
107.675,242.84
107.695,274.77
107.715,325.64
107.735,373.42
107.755,352.48
107.774,309.78
107.794,239.36
107.814,176.85
107.834,227.62
107.854,333.9
107.874,392.4
107.894,370.23
107.914,236.83
107.934,335.33
107.954,345.69
107.974,288.69
107.994,273.13
108.014,389.56
108.034,346.59
108.054,282.66
108.074,344.3
108.094,361.81
108.113,189.94
108.133,268.86
108.153,160.16
108.173,101.46
108.193,200.89
108.213,290.16
108.233,135.29
108.253,336.61
108.273,169
108.293,234.67
108.313,219.07
108.333,266.67
108.353,431.76
108.373,301.74
108.393,268.26
108.413,322.23
108.433,269.8
108.453,283.71
108.472,358.18
108.492,233.56
108.512,210.42
108.532,144.65
108.552,271.67
108.572,270.71
108.592,250.4
108.612,396.15
108.632,362.96
108.652,270.81
108.672,251.08
108.692,325.97
108.712,246.48
108.732,295.76
108.752,227.23
108.772,193.8
108.792,224.94
108.811,244.73
108.831,375.69
108.851,314.76
108.871,408.79
108.891,241.48
108.911,104.39
108.931,204.62
108.951,216.5
108.971,313.69
108.991,329.26
109.011,341.84
109.031,347.36
109.051,256.33
109.071,225.91
109.091,95.38
109.111,169.45
109.131,264.28
109.15,388.86
109.17,199.01
109.19,364.07
109.21,247.35
109.23,172.97
109.25,294.89
109.27,247.33
109.29,176.29
109.31,229.4
109.33,235.33
109.35,277.17
109.37,375.49
109.39,356.32
109.41,276.88
109.43,336.36
109.45,267.12
109.47,181.17
109.489,272.24
109.509,340.71
109.529,253.1
109.549,308.81
109.569,271.36
109.589,440.46
109.609,150.4
109.629,279.8
109.649,327.92
109.669,244.23
109.689,220.7
109.709,212.27
109.729,206.69
109.749,364.74
109.769,391.11
109.789,315.17
109.809,393.74
109.828,365.03
109.848,268.73
109.868,375.18
109.888,284.47
109.908,203.57
109.928,419.05
109.948,371.84
109.968,339.91
109.988,178.03